SpectraSuite Data File
++++++++++++++++++++++++++++++++++++
Date: Wed Jan 29 13:32:17 NZDT 2014
User: radimdet
Dark Spectrum Present: No
Reference Spectrum Present: No
Number of Sampled Component Spectra: 1
Spectrometers: USB2G7029
Integration Time (usec): 400000 (USB2G7029)
Spectra Averaged: 1 (USB2G7029)
Boxcar Smoothing: 0 (USB2G7029)
Correct for Electrical Dark: Yes (USB2G7029)
Strobe/Lamp Enabled: No (USB2G7029)
Correct for Detector Non-linearity: No (USB2G7029)
Correct for Stray Light: No (USB2G7029)
Number of Pixels in Processed Spectrum: 2048
340.33	-7.61
340.72	-7.61
341.10	-5.61
341.48	-5.61
341.87	-7.61
342.25	-4.61
342.63	1.39
343.02	6.39
343.40	-0.61
343.78	-3.61
344.17	-4.61
344.55	-4.61
344.93	-4.61
345.32	-3.61
345.70	-1.61
346.08	-1.61
346.46	-1.61
346.85	-1.61
347.23	0.39
347.61	1.39
348.00	13.39
348.38	0.39
348.76	-1.61
349.14	-3.61
349.53	-3.61
349.91	-0.61
350.29	0.39
350.67	-2.61
351.06	-4.61
351.44	-4.61
351.82	-4.61
352.20	-0.61
352.59	-2.61
352.97	0.39
353.35	-1.61
353.73	-1.61
354.11	-2.61
354.50	-2.61
354.88	1.39
355.26	1.39
355.64	-4.61
356.02	-3.61
356.41	-4.61
356.79	-6.61
357.17	-3.61
357.55	0.39
357.93	-1.61
358.32	-4.61
358.70	-4.61
359.08	-4.61
359.46	-2.61
359.84	-0.61
360.22	-0.61
360.60	-4.61
360.99	-2.61
361.37	-4.61
361.75	-5.61
362.13	3.39
362.51	-1.61
362.89	-4.61
363.27	-1.61
363.65	0.39
364.04	10.39
364.42	3.39
364.80	3.39
365.18	1.39
365.56	2.39
365.94	-2.61
366.32	-1.61
366.70	-1.61
367.08	-1.61
367.46	12.39
367.85	2.39
368.23	2.39
368.61	2.39
368.99	-3.61
369.37	-1.61
369.75	0.39
370.13	1.39
370.51	1.39
370.89	2.39
371.27	1.39
371.65	3.39
372.03	2.39
372.41	1.39
372.79	-1.61
373.17	-1.61
373.55	-1.61
373.93	-1.61
374.31	-0.61
374.69	0.39
375.07	0.39
375.45	0.39
375.83	-0.61
376.21	-1.61
376.59	2.39
376.97	-1.61
377.35	-1.61
377.73	-1.61
378.11	1.39
378.49	-4.61
378.87	-0.61
379.25	-0.61
379.63	-0.61
380.01	-0.61
380.39	0.39
380.77	-3.61
381.15	-0.61
381.52	-6.61
381.90	-3.61
382.28	-0.61
382.66	0.39
383.04	0.39
383.42	-0.61
383.80	-0.61
384.18	1.39
384.56	0.39
384.94	2.39
385.32	3.39
385.69	0.39
386.07	0.39
386.45	25.39
386.83	7.39
387.21	2.39
387.59	-2.61
387.97	1.39
388.34	1.39
388.72	-1.61
389.10	-5.61
389.48	0.39
389.86	1.39
390.24	4.39
390.62	2.39
390.99	-0.61
391.37	0.39
391.75	3.39
392.13	1.39
392.51	-0.61
392.88	1.39
393.26	1.39
393.64	2.39
394.02	-0.61
394.40	3.39
394.77	18.39
395.15	9.39
395.53	2.39
395.91	2.39
396.29	1.39
396.66	0.39
397.04	1.39
397.42	3.39
397.80	4.39
398.17	3.39
398.55	9.39
398.93	4.39
399.31	3.39
399.68	-0.61
400.06	-0.61
400.44	2.39
400.82	-1.61
401.19	0.39
401.57	0.39
401.95	-2.61
402.32	-1.61
402.70	2.39
403.08	-0.61
403.45	2.39
403.83	3.39
404.21	2.39
404.59	2.39
404.96	3.39
405.34	5.39
405.72	5.39
406.09	3.39
406.47	0.39
406.85	-2.61
407.22	1.39
407.60	1.39
407.97	3.39
408.35	2.39
408.73	14.39
409.10	5.39
409.48	3.39
409.86	2.39
410.23	2.39
410.61	-1.61
410.99	0.39
411.36	3.39
411.74	-0.61
412.11	0.39
412.49	1.39
412.87	1.39
413.24	4.39
413.62	1.39
413.99	2.39
414.37	3.39
414.74	2.39
415.12	3.39
415.50	5.39
415.87	2.39
416.25	2.39
416.62	0.39
417.00	3.39
417.37	2.39
417.75	0.39
418.12	3.39
418.50	4.39
418.87	2.39
419.25	0.39
419.63	1.39
420.00	-2.61
420.38	2.39
420.75	3.39
421.13	2.39
421.50	-0.61
421.88	-0.61
422.25	3.39
422.63	4.39
423.00	2.39
423.38	2.39
423.75	4.39
424.12	4.39
424.50	5.39
424.87	0.39
425.25	4.39
425.62	0.39
426.00	-1.61
426.37	0.39
426.75	1.39
427.12	3.39
427.50	2.39
427.87	2.39
428.24	1.39
428.62	3.39
428.99	4.39
429.37	1.39
429.74	0.39
430.11	0.39
430.49	4.39
430.86	0.39
431.24	-1.61
431.61	2.39
431.98	5.39
432.36	6.39
432.73	4.39
433.11	0.39
433.48	4.39
433.85	3.39
434.23	0.39
434.60	2.39
434.97	5.39
435.35	2.39
435.72	-0.61
436.09	1.39
436.47	-0.61
436.84	-6.61
437.21	4.39
437.59	2.39
437.96	0.39
438.33	-0.61
438.71	1.39
439.08	-0.61
439.45	5.39
439.83	5.39
440.20	3.39
440.57	1.39
440.94	6.39
441.32	3.39
441.69	-1.61
442.06	1.39
442.43	-0.61
442.81	1.39
443.18	2.39
443.55	-1.61
443.93	0.39
444.30	1.39
444.67	1.39
445.04	3.39
445.41	3.39
445.79	2.39
446.16	8.39
446.53	7.39
446.90	6.39
447.28	2.39
447.65	2.39
448.02	3.39
448.39	1.39
448.76	13.39
449.14	6.39
449.51	3.39
449.88	1.39
450.25	23.39
450.62	11.39
451.00	3.39
451.37	4.39
451.74	1.39
452.11	4.39
452.48	5.39
452.85	1.39
453.22	2.39
453.60	11.39
453.97	7.39
454.34	5.39
454.71	3.39
455.08	4.39
455.45	3.39
455.82	3.39
456.20	7.39
456.57	4.39
456.94	1.39
457.31	2.39
457.68	6.39
458.05	3.39
458.42	-0.61
458.79	-2.61
459.16	-0.61
459.53	0.39
459.90	0.39
460.27	-1.61
460.65	2.39
461.02	3.39
461.39	1.39
461.76	2.39
462.13	3.39
462.50	5.39
462.87	1.39
463.24	1.39
463.61	0.39
463.98	0.39
464.35	7.39
464.72	2.39
465.09	0.39
465.46	2.39
465.83	2.39
466.20	-1.61
466.57	2.39
466.94	0.39
467.31	1.39
467.68	1.39
468.05	0.39
468.42	1.39
468.79	5.39
469.16	0.39
469.53	-0.61
469.90	4.39
470.27	2.39
470.64	3.39
471.01	11.39
471.38	5.39
471.75	2.39
472.11	3.39
472.48	1.39
472.85	5.39
473.22	3.39
473.59	12.39
473.96	5.39
474.33	-0.61
474.70	1.39
475.07	4.39
475.44	0.39
475.81	0.39
476.17	0.39
476.54	1.39
476.91	3.39
477.28	-0.61
477.65	-1.61
478.02	5.39
478.39	1.39
478.76	4.39
479.12	1.39
479.49	3.39
479.86	2.39
480.23	2.39
480.60	3.39
480.97	-1.61
481.33	-1.61
481.70	-1.61
482.07	-0.61
482.44	-1.61
482.81	-0.61
483.17	0.39
483.54	0.39
483.91	-0.61
484.28	0.39
484.65	0.39
485.01	-0.61
485.38	-0.61
485.75	4.39
486.12	3.39
486.49	-2.61
486.85	-1.61
487.22	1.39
487.59	0.39
487.96	-0.61
488.32	2.39
488.69	1.39
489.06	1.39
489.43	-1.61
489.79	-1.61
490.16	-0.61
490.53	-1.61
490.89	-2.61
491.26	-1.61
491.63	2.39
492.00	4.39
492.36	-0.61
492.73	3.39
493.10	4.39
493.46	1.39
493.83	0.39
494.20	4.39
494.56	-2.61
494.93	-5.61
495.30	2.39
495.66	1.39
496.03	-0.61
496.40	6.39
496.76	4.39
497.13	4.39
497.50	1.39
497.86	1.39
498.23	2.39
498.59	-1.61
498.96	-1.61
499.33	0.39
499.69	5.39
500.06	1.39
500.43	0.39
500.79	-2.61
501.16	-1.61
501.52	1.39
501.89	2.39
502.25	1.39
502.62	3.39
502.99	2.39
503.35	-0.61
503.72	0.39
504.08	3.39
504.45	4.39
504.81	1.39
505.18	-2.61
505.55	2.39
505.91	2.39
506.28	4.39
506.64	-0.61
507.01	-1.61
507.37	0.39
507.74	2.39
508.10	-0.61
508.47	4.39
508.83	2.39
509.20	2.39
509.56	-1.61
509.93	1.39
510.29	3.39
510.66	3.39
511.02	3.39
511.39	3.39
511.75	1.39
512.12	3.39
512.48	2.39
512.85	0.39
513.21	2.39
513.57	8.39
513.94	2.39
514.30	-0.61
514.67	1.39
515.03	0.39
515.40	1.39
515.76	0.39
516.12	-2.61
516.49	-3.61
516.85	-1.61
517.22	-1.61
517.58	0.39
517.94	3.39
518.31	7.39
518.67	4.39
519.04	2.39
519.40	4.39
519.76	2.39
520.13	2.39
520.49	2.39
520.85	4.39
521.22	-1.61
521.58	-1.61
521.95	-0.61
522.31	0.39
522.67	2.39
523.04	3.39
523.40	6.39
523.76	1.39
524.13	1.39
524.49	-0.61
524.85	0.39
525.21	-0.61
525.58	-0.61
525.94	-1.61
526.30	-0.61
526.67	-1.61
527.03	-0.61
527.39	-1.61
527.76	-0.61
528.12	1.39
528.48	-1.61
528.84	-2.61
529.21	-0.61
529.57	0.39
529.93	-0.61
530.29	1.39
530.66	3.39
531.02	1.39
531.38	-1.61
531.74	-0.61
532.11	1.39
532.47	-1.61
532.83	1.39
533.19	1.39
533.55	-1.61
533.92	0.39
534.28	1.39
534.64	11.39
535.00	6.39
535.36	8.39
535.73	5.39
536.09	5.39
536.45	4.39
536.81	8.39
537.17	7.39
537.53	1.39
537.90	2.39
538.26	5.39
538.62	2.39
538.98	6.39
539.34	3.39
539.70	0.39
540.06	5.39
540.43	2.39
540.79	4.39
541.15	21.39
541.51	8.39
541.87	6.39
542.23	9.39
542.59	4.39
542.95	4.39
543.31	11.39
543.67	11.39
544.04	9.39
544.40	9.39
544.76	11.39
545.12	5.39
545.48	10.39
545.84	9.39
546.20	12.39
546.56	14.39
546.92	15.39
547.28	27.39
547.64	20.39
548.00	19.39
548.36	25.39
548.72	26.39
549.08	29.39
549.44	29.39
549.80	35.39
550.16	33.39
550.52	36.39
550.88	52.39
551.24	47.39
551.60	37.39
551.96	50.39
552.32	61.39
552.68	63.39
553.04	58.39
553.40	71.39
553.76	66.39
554.12	67.39
554.48	78.39
554.84	84.39
555.20	86.39
555.56	94.39
555.92	98.39
556.28	104.39
556.64	104.39
556.99	100.39
557.35	96.39
557.71	105.39
558.07	111.39
558.43	113.39
558.79	114.39
559.15	126.39
559.51	120.39
559.87	130.39
560.23	124.39
560.58	126.39
560.94	121.39
561.30	125.39
561.66	140.39
562.02	130.39
562.38	142.39
562.74	137.39
563.09	131.39
563.45	132.39
563.81	140.39
564.17	140.39
564.53	128.39
564.89	137.39
565.24	130.39
565.60	130.39
565.96	146.39
566.32	130.39
566.68	138.39
567.03	129.39
567.39	135.39
567.75	128.39
568.11	126.39
568.47	121.39
568.82	119.39
569.18	110.39
569.54	117.39
569.90	120.39
570.25	114.39
570.61	107.39
570.97	113.39
571.33	105.39
571.68	112.39
572.04	104.39
572.40	95.39
572.76	106.39
573.11	90.39
573.47	107.39
573.83	90.39
574.18	94.39
574.54	94.39
574.90	86.39
575.25	96.39
575.61	89.39
575.97	83.39
576.33	82.39
576.68	80.39
577.04	83.39
577.40	74.39
577.75	78.39
578.11	87.39
578.47	86.39
578.82	77.39
579.18	83.39
579.53	80.39
579.89	91.39
580.25	88.39
580.60	82.39
580.96	84.39
581.32	93.39
581.67	90.39
582.03	83.39
582.38	97.39
582.74	103.39
583.10	96.39
583.45	105.39
583.81	110.39
584.16	119.39
584.52	115.39
584.87	125.39
585.23	141.39
585.59	148.39
585.94	151.39
586.30	157.39
586.65	180.39
587.01	179.39
587.36	194.39
587.72	219.39
588.07	226.39
588.43	234.39
588.78	260.39
589.14	270.39
589.49	294.39
589.85	292.39
590.20	318.39
590.56	323.39
590.91	339.39
591.27	360.39
591.62	370.39
591.98	391.39
592.33	415.39
592.69	407.39
593.04	428.39
593.40	437.39
593.75	444.39
594.11	452.39
594.46	450.39
594.82	469.39
595.17	488.39
595.52	493.39
595.88	489.39
596.23	509.39
596.59	503.39
596.94	521.39
597.30	504.39
597.65	508.39
598.00	520.39
598.36	523.39
598.71	535.39
599.07	529.39
599.42	527.39
599.77	523.39
600.13	536.39
600.48	518.39
600.83	525.39
601.19	534.39
601.54	519.39
601.89	529.39
602.25	511.39
602.60	531.39
602.95	522.39
603.31	515.39
603.66	508.39
604.01	490.39
604.37	481.39
604.72	502.39
605.07	486.39
605.43	470.39
605.78	466.39
606.13	474.39
606.49	456.39
606.84	441.39
607.19	428.39
607.54	406.39
607.90	405.39
608.25	404.39
608.60	388.39
608.96	386.39
609.31	379.39
609.66	371.39
610.01	371.39
610.37	328.39
610.72	322.39
611.07	302.39
611.42	304.39
611.77	285.39
612.13	282.39
612.48	262.39
612.83	251.39
613.18	232.39
613.53	244.39
613.89	230.39
614.24	212.39
614.59	209.39
614.94	193.39
615.29	203.39
615.65	182.39
616.00	177.39
616.35	161.39
616.70	170.39
617.05	152.39
617.40	147.39
617.76	139.39
618.11	127.39
618.46	137.39
618.81	123.39
619.16	119.39
619.51	114.39
619.86	114.39
620.21	112.39
620.57	124.39
620.92	115.39
621.27	98.39
621.62	94.39
621.97	92.39
622.32	82.39
622.67	79.39
623.02	81.39
623.37	73.39
623.72	74.39
624.07	75.39
624.42	85.39
624.77	75.39
625.12	79.39
625.48	76.39
625.83	78.39
626.18	78.39
626.53	70.39
626.88	69.39
627.23	84.39
627.58	78.39
627.93	79.39
628.28	82.39
628.63	81.39
628.98	83.39
629.33	92.39
629.68	93.39
630.03	97.39
630.38	96.39
630.73	100.39
631.08	94.39
631.43	104.39
631.77	104.39
632.12	107.39
632.47	117.39
632.82	123.39
633.17	129.39
633.52	125.39
633.87	146.39
634.22	144.39
634.57	148.39
634.92	153.39
635.27	165.39
635.62	163.39
635.97	166.39
636.32	167.39
636.66	178.39
637.01	182.39
637.36	185.39
637.71	205.39
638.06	206.39
638.41	212.39
638.76	219.39
639.11	228.39
639.45	235.39
639.80	221.39
640.15	227.39
640.50	234.39
640.85	251.39
641.20	239.39
641.54	237.39
641.89	240.39
642.24	242.39
642.59	238.39
642.94	258.39
643.28	245.39
643.63	260.39
643.98	257.39
644.33	267.39
644.68	261.39
645.02	268.39
645.37	257.39
645.72	246.39
646.07	262.39
646.41	257.39
646.76	261.39
647.11	265.39
647.46	283.39
647.80	257.39
648.15	264.39
648.50	261.39
648.85	243.39
649.19	254.39
649.54	262.39
649.89	245.39
650.24	242.39
650.58	231.39
650.93	233.39
651.28	230.39
651.62	240.39
651.97	227.39
652.32	219.39
652.66	223.39
653.01	221.39
653.36	206.39
653.70	207.39
654.05	200.39
654.40	218.39
654.74	205.39
655.09	200.39
655.44	190.39
655.78	186.39
656.13	183.39
656.48	175.39
656.82	157.39
657.17	164.39
657.51	156.39
657.86	152.39
658.21	153.39
658.55	155.39
658.90	148.39
659.24	127.39
659.59	130.39
659.94	125.39
660.28	126.39
660.63	117.39
660.97	114.39
661.32	116.39
661.66	114.39
662.01	111.39
662.35	104.39
662.70	96.39
663.04	88.39
663.39	94.39
663.74	88.39
664.08	88.39
664.43	82.39
664.77	85.39
665.12	101.39
665.46	80.39
665.81	80.39
666.15	76.39
666.50	82.39
666.84	74.39
667.19	61.39
667.53	73.39
667.87	68.39
668.22	61.39
668.56	58.39
668.91	64.39
669.25	64.39
669.60	60.39
669.94	57.39
670.29	54.39
670.63	62.39
670.97	60.39
671.32	64.39
671.66	69.39
672.01	62.39
672.35	63.39
672.70	77.39
673.04	73.39
673.38	70.39
673.73	86.39
674.07	84.39
674.41	92.39
674.76	103.39
675.10	113.39
675.45	110.39
675.79	122.39
676.13	127.39
676.48	124.39
676.82	144.39
677.16	151.39
677.51	161.39
677.85	154.39
678.19	169.39
678.54	185.39
678.88	178.39
679.22	184.39
679.57	199.39
679.91	201.39
680.25	203.39
680.59	205.39
680.94	216.39
681.28	216.39
681.62	217.39
681.97	227.39
682.31	224.39
682.65	215.39
682.99	221.39
683.34	223.39
683.68	224.39
684.02	221.39
684.36	217.39
684.71	214.39
685.05	219.39
685.39	234.39
685.73	228.39
686.07	226.39
686.42	224.39
686.76	231.39
687.10	223.39
687.44	226.39
687.78	224.39
688.13	227.39
688.47	223.39
688.81	229.39
689.15	226.39
689.49	227.39
689.83	222.39
690.18	214.39
690.52	228.39
690.86	219.39
691.20	226.39
691.54	225.39
691.88	221.39
692.22	227.39
692.57	232.39
692.91	226.39
693.25	231.39
693.59	217.39
693.93	218.39
694.27	220.39
694.61	219.39
694.95	214.39
695.29	205.39
695.63	217.39
695.98	212.39
696.32	212.39
696.66	201.39
697.00	204.39
697.34	205.39
697.68	197.39
698.02	188.39
698.36	193.39
698.70	188.39
699.04	189.39
699.38	190.39
699.72	176.39
700.06	177.39
700.40	172.39
700.74	179.39
701.08	172.39
701.42	168.39
701.76	157.39
702.10	147.39
702.44	161.39
702.78	155.39
703.12	173.39
703.46	151.39
703.80	146.39
704.14	145.39
704.48	161.39
704.82	150.39
705.16	136.39
705.50	153.39
705.84	134.39
706.17	141.39
706.51	137.39
706.85	133.39
707.19	161.39
707.53	136.39
707.87	123.39
708.21	127.39
708.55	122.39
708.89	114.39
709.23	120.39
709.56	122.39
709.90	115.39
710.24	116.39
710.58	114.39
710.92	114.39
711.26	116.39
711.60	122.39
711.93	114.39
712.27	115.39
712.61	121.39
712.95	118.39
713.29	122.39
713.63	122.39
713.96	112.39
714.30	125.39
714.64	122.39
714.98	120.39
715.32	139.39
715.65	118.39
715.99	136.39
716.33	134.39
716.67	124.39
717.01	135.39
717.34	135.39
717.68	134.39
718.02	180.39
718.36	137.39
718.69	119.39
719.03	140.39
719.37	144.39
719.71	146.39
720.04	141.39
720.38	150.39
720.72	149.39
721.05	152.39
721.39	147.39
721.73	153.39
722.07	153.39
722.40	147.39
722.74	146.39
723.08	142.39
723.41	152.39
723.75	166.39
724.09	142.39
724.42	153.39
724.76	144.39
725.10	156.39
725.43	147.39
725.77	149.39
726.11	138.39
726.44	142.39
726.78	139.39
727.11	142.39
727.45	135.39
727.79	136.39
728.12	129.39
728.46	136.39
728.79	130.39
729.13	129.39
729.47	124.39
729.80	118.39
730.14	123.39
730.47	120.39
730.81	112.39
731.15	118.39
731.48	121.39
731.82	112.39
732.15	106.39
732.49	99.39
732.82	100.39
733.16	99.39
733.49	97.39
733.83	87.39
734.16	90.39
734.50	87.39
734.83	88.39
735.17	102.39
735.50	82.39
735.84	78.39
736.17	77.39
736.51	75.39
736.84	73.39
737.18	77.39
737.51	64.39
737.85	81.39
738.18	62.39
738.52	60.39
738.85	57.39
739.19	61.39
739.52	58.39
739.85	56.39
740.19	51.39
740.52	49.39
740.86	51.39
741.19	49.39
741.53	44.39
741.86	43.39
742.19	45.39
742.53	45.39
742.86	36.39
743.20	50.39
743.53	39.39
743.86	47.39
744.20	36.39
744.53	30.39
744.86	28.39
745.20	30.39
745.53	25.39
745.86	33.39
746.20	29.39
746.53	48.39
746.86	32.39
747.20	31.39
747.53	26.39
747.86	27.39
748.20	25.39
748.53	28.39
748.86	26.39
749.20	27.39
749.53	20.39
749.86	22.39
750.19	24.39
750.53	20.39
750.86	15.39
751.19	19.39
751.53	24.39
751.86	27.39
752.19	22.39
752.52	24.39
752.86	30.39
753.19	26.39
753.52	27.39
753.85	28.39
754.18	26.39
754.52	24.39
754.85	24.39
755.18	21.39
755.51	23.39
755.84	21.39
756.18	23.39
756.51	37.39
756.84	27.39
757.17	31.39
757.50	24.39
757.84	26.39
758.17	26.39
758.50	21.39
758.83	23.39
759.16	26.39
759.49	26.39
759.82	30.39
760.16	31.39
760.49	25.39
760.82	22.39
761.15	30.39
761.48	25.39
761.81	27.39
762.14	26.39
762.47	50.39
762.80	32.39
763.14	30.39
763.47	21.39
763.80	21.39
764.13	23.39
764.46	23.39
764.79	33.39
765.12	26.39
765.45	34.39
765.78	23.39
766.11	19.39
766.44	22.39
766.77	20.39
767.10	22.39
767.43	18.39
767.76	22.39
768.09	19.39
768.42	17.39
768.75	24.39
769.08	20.39
769.41	21.39
769.74	33.39
770.07	19.39
770.40	19.39
770.73	13.39
771.06	19.39
771.39	16.39
771.72	18.39
772.05	17.39
772.38	11.39
772.71	12.39
773.04	11.39
773.37	13.39
773.70	12.39
774.02	7.39
774.35	10.39
774.68	11.39
775.01	12.39
775.34	12.39
775.67	17.39
776.00	13.39
776.33	15.39
776.66	16.39
776.99	10.39
777.31	15.39
777.64	13.39
777.97	13.39
778.30	12.39
778.63	13.39
778.96	10.39
779.28	18.39
779.61	10.39
779.94	9.39
780.27	21.39
780.60	14.39
780.93	11.39
781.25	5.39
781.58	9.39
781.91	7.39
782.24	7.39
782.57	9.39
782.89	11.39
783.22	7.39
783.55	6.39
783.88	7.39
784.20	13.39
784.53	12.39
784.86	9.39
785.19	3.39
785.51	6.39
785.84	11.39
786.17	5.39
786.50	5.39
786.82	5.39
787.15	7.39
787.48	8.39
787.80	10.39
788.13	5.39
788.46	10.39
788.79	4.39
789.11	9.39
789.44	13.39
789.77	8.39
790.09	9.39
790.42	9.39
790.75	7.39
791.07	11.39
791.40	6.39
791.72	7.39
792.05	11.39
792.38	9.39
792.70	9.39
793.03	8.39
793.36	11.39
793.68	11.39
794.01	9.39
794.33	8.39
794.66	8.39
794.99	6.39
795.31	9.39
795.64	9.39
795.96	7.39
796.29	11.39
796.62	10.39
796.94	9.39
797.27	6.39
797.59	14.39
797.92	12.39
798.24	10.39
798.57	12.39
798.89	10.39
799.22	10.39
799.54	8.39
799.87	15.39
800.19	13.39
800.52	10.39
800.84	6.39
801.17	10.39
801.49	13.39
801.82	13.39
802.14	13.39
802.47	16.39
802.79	14.39
803.12	11.39
803.44	18.39
803.77	17.39
804.09	11.39
804.42	17.39
804.74	15.39
805.06	12.39
805.39	14.39
805.71	12.39
806.04	10.39
806.36	13.39
806.68	16.39
807.01	42.39
807.33	15.39
807.66	15.39
807.98	15.39
808.30	17.39
808.63	14.39
808.95	18.39
809.28	15.39
809.60	24.39
809.92	21.39
810.25	17.39
810.57	14.39
810.89	15.39
811.22	21.39
811.54	16.39
811.86	12.39
812.19	18.39
812.51	23.39
812.83	20.39
813.16	23.39
813.48	15.39
813.80	15.39
814.12	18.39
814.45	19.39
814.77	16.39
815.09	15.39
815.41	16.39
815.74	17.39
816.06	16.39
816.38	14.39
816.70	14.39
817.03	18.39
817.35	12.39
817.67	14.39
817.99	18.39
818.32	18.39
818.64	13.39
818.96	14.39
819.28	15.39
819.60	12.39
819.93	15.39
820.25	11.39
820.57	9.39
820.89	12.39
821.21	7.39
821.54	9.39
821.86	13.39
822.18	11.39
822.50	8.39
822.82	9.39
823.14	9.39
823.46	7.39
823.79	9.39
824.11	13.39
824.43	12.39
824.75	24.39
825.07	11.39
825.39	13.39
825.71	9.39
826.03	6.39
826.35	5.39
826.67	10.39
827.00	12.39
827.32	5.39
827.64	9.39
827.96	7.39
828.28	7.39
828.60	3.39
828.92	4.39
829.24	6.39
829.56	7.39
829.88	6.39
830.20	2.39
830.52	7.39
830.84	3.39
831.16	7.39
831.48	4.39
831.80	10.39
832.12	6.39
832.44	2.39
832.76	2.39
833.08	4.39
833.40	4.39
833.72	6.39
834.04	3.39
834.36	1.39
834.68	1.39
835.00	5.39
835.32	-0.61
835.64	2.39
835.96	13.39
836.28	22.39
836.59	7.39
836.91	6.39
837.23	0.39
837.55	-0.61
837.87	5.39
838.19	3.39
838.51	4.39
838.83	2.39
839.15	8.39
839.47	4.39
839.78	9.39
840.10	4.39
840.42	3.39
840.74	1.39
841.06	3.39
841.38	1.39
841.69	-2.61
842.01	-2.61
842.33	-0.61
842.65	2.39
842.97	0.39
843.29	-0.61
843.60	-2.61
843.92	-2.61
844.24	0.39
844.56	2.39
844.88	-0.61
845.19	3.39
845.51	1.39
845.83	6.39
846.15	2.39
846.46	1.39
846.78	-0.61
847.10	1.39
847.42	5.39
847.73	21.39
848.05	6.39
848.37	0.39
848.69	2.39
849.00	5.39
849.32	0.39
849.64	-1.61
849.95	0.39
850.27	1.39
850.59	6.39
850.90	4.39
851.22	3.39
851.54	3.39
851.85	0.39
852.17	9.39
852.49	7.39
852.80	6.39
853.12	3.39
853.44	3.39
853.75	2.39
854.07	3.39
854.39	7.39
854.70	7.39
855.02	6.39
855.33	2.39
855.65	1.39
855.97	2.39
856.28	1.39
856.60	-0.61
856.91	0.39
857.23	6.39
857.55	1.39
857.86	1.39
858.18	1.39
858.49	4.39
858.81	1.39
859.12	0.39
859.44	2.39
859.75	1.39
860.07	2.39
860.38	0.39
860.70	-1.61
861.01	2.39
861.33	3.39
861.65	-0.61
861.96	1.39
862.27	-1.61
862.59	1.39
862.90	1.39
863.22	2.39
863.53	8.39
863.85	6.39
864.16	3.39
864.48	5.39
864.79	3.39
865.11	6.39
865.42	17.39
865.74	6.39
866.05	6.39
866.36	-0.61
866.68	0.39
866.99	1.39
867.31	-0.61
867.62	5.39
867.93	3.39
868.25	2.39
868.56	6.39
868.88	7.39
869.19	2.39
869.50	0.39
869.82	1.39
870.13	4.39
870.44	2.39
870.76	6.39
871.07	6.39
871.38	4.39
871.70	1.39
872.01	3.39
872.32	5.39
872.64	2.39
872.95	2.39
873.26	8.39
873.58	2.39
873.89	-0.61
874.20	7.39
874.51	3.39
874.83	-0.61
875.14	-0.61
875.45	0.39
875.77	0.39
876.08	-2.61
876.39	9.39
876.70	4.39
877.02	4.39
877.33	-6.61
877.64	-0.61
877.95	-3.61
878.26	-0.61
878.58	0.39
878.89	2.39
879.20	6.39
879.51	5.39
879.82	6.39
880.14	7.39
880.45	4.39
880.76	4.39
881.07	1.39
881.38	4.39
881.69	4.39
882.01	3.39
882.32	1.39
882.63	-0.61
882.94	-1.61
883.25	2.39
883.56	2.39
883.87	3.39
884.19	7.39
884.50	3.39
884.81	2.39
885.12	3.39
885.43	4.39
885.74	8.39
886.05	4.39
886.36	3.39
886.67	5.39
886.98	1.39
887.29	0.39
887.60	2.39
887.92	-0.61
888.23	2.39
888.54	7.39
888.85	7.39
889.16	-1.61
889.47	7.39
889.78	2.39
890.09	2.39
890.40	1.39
890.71	3.39
891.02	5.39
891.33	6.39
891.64	5.39
891.95	7.39
892.26	2.39
892.57	0.39
892.88	1.39
893.19	-1.61
893.49	9.39
893.80	8.39
894.11	3.39
894.42	4.39
894.73	3.39
895.04	3.39
895.35	1.39
895.66	1.39
895.97	9.39
896.28	5.39
896.59	18.39
896.90	10.39
897.20	6.39
897.51	1.39
897.82	-2.61
898.13	1.39
898.44	-0.61
898.75	1.39
899.06	13.39
899.37	9.39
899.67	4.39
899.98	7.39
900.29	0.39
900.60	1.39
900.91	5.39
901.22	4.39
901.52	1.39
901.83	3.39
902.14	0.39
902.45	3.39
902.76	2.39
903.06	4.39
903.37	2.39
903.68	1.39
903.99	2.39
904.29	4.39
904.60	2.39
904.91	0.39
905.22	-0.61
905.52	0.39
905.83	-1.61
906.14	0.39
906.45	3.39
906.75	0.39
907.06	4.39
907.37	7.39
907.67	16.39
907.98	12.39
908.29	3.39
908.59	4.39
908.90	1.39
909.21	5.39
909.51	4.39
909.82	12.39
910.13	5.39
910.43	2.39
910.74	-1.61
911.05	4.39
911.35	3.39
911.66	-0.61
911.97	1.39
912.27	9.39
912.58	8.39
912.88	2.39
913.19	-2.61
913.50	-0.61
913.80	9.39
914.11	2.39
914.41	-1.61
914.72	-0.61
915.03	-0.61
915.33	-0.61
915.64	3.39
915.94	3.39
916.25	-0.61
916.55	1.39
916.86	7.39
917.16	3.39
917.47	0.39
917.77	4.39
918.08	3.39
918.38	4.39
918.69	1.39
918.99	6.39
919.30	-0.61
919.60	5.39
919.91	2.39
920.21	2.39
920.52	2.39
920.82	1.39
921.13	0.39
921.43	-0.61
921.74	2.39
922.04	1.39
922.35	2.39
922.65	2.39
922.95	0.39
923.26	0.39
923.56	2.39
923.87	1.39
924.17	1.39
924.47	2.39
924.78	0.39
925.08	-0.61
925.39	-0.61
925.69	6.39
925.99	-0.61
926.30	-2.61
926.60	-0.61
926.90	2.39
927.21	2.39
927.51	-2.61
927.82	8.39
928.12	10.39
928.42	10.39
928.72	5.39
929.03	2.39
929.33	-0.61
929.63	0.39
929.94	0.39
930.24	0.39
930.54	83.39
930.85	14.39
931.15	5.39
931.45	1.39
931.75	-0.61
932.06	-1.61
932.36	2.39
932.66	6.39
932.96	2.39
933.27	-1.61
933.57	-2.61
933.87	-1.61
934.17	1.39
934.48	-0.61
934.78	1.39
935.08	2.39
935.38	-1.61
935.68	3.39
935.99	10.39
936.29	1.39
936.59	-5.61
936.89	0.39
937.19	-0.61
937.49	-3.61
937.80	-1.61
938.10	-1.61
938.40	2.39
938.70	3.39
939.00	3.39
939.30	9.39
939.60	4.39
939.90	8.39
940.21	2.39
940.51	4.39
940.81	0.39
941.11	2.39
941.41	5.39
941.71	2.39
942.01	4.39
942.31	2.39
942.61	2.39
942.91	-1.61
943.21	1.39
943.51	6.39
943.81	4.39
944.11	0.39
944.41	19.39
944.72	1.39
945.02	1.39
945.32	1.39
945.62	2.39
945.92	-0.61
946.22	-2.61
946.52	-1.61
946.82	1.39
947.11	0.39
947.41	-0.61
947.71	5.39
948.01	12.39
948.31	13.39
948.61	4.39
948.91	0.39
949.21	3.39
949.51	0.39
949.81	2.39
950.11	1.39
950.41	0.39
950.71	4.39
951.01	1.39
951.31	15.39
951.61	6.39
951.90	1.39
952.20	2.39
952.50	1.39
952.80	0.39
953.10	-0.61
953.40	-2.61
953.70	-1.61
953.99	-1.61
954.29	1.39
954.59	3.39
954.89	-1.61
955.19	-0.61
955.49	-2.61
955.78	2.39
956.08	-0.61
956.38	1.39
956.68	-1.61
956.98	3.39
957.27	0.39
957.57	1.39
957.87	1.39
958.17	2.39
958.47	1.39
958.76	-0.61
959.06	-2.61
959.36	-1.61
959.66	-0.61
959.95	1.39
960.25	3.39
960.55	1.39
960.85	1.39
961.14	3.39
961.44	4.39
961.74	-3.61
962.03	-2.61
962.33	-1.61
962.63	-0.61
962.92	-2.61
963.22	-0.61
963.52	-0.61
963.81	-2.61
964.11	-3.61
964.41	0.39
964.70	-0.61
965.00	-2.61
965.30	-4.61
965.59	-0.61
965.89	0.39
966.19	1.39
966.48	2.39
966.78	-0.61
967.07	-0.61
967.37	2.39
967.67	2.39
967.96	1.39
968.26	-0.61
968.55	-0.61
968.85	-0.61
969.14	-0.61
969.44	1.39
969.74	2.39
970.03	-2.61
970.33	-0.61
970.62	-1.61
970.92	0.39
971.21	0.39
971.51	1.39
971.80	3.39
972.10	4.39
972.39	12.39
972.69	9.39
972.98	-0.61
973.28	-0.61
973.57	-1.61
973.87	-3.61
974.16	-1.61
974.46	-4.61
974.75	3.39
975.04	2.39
975.34	-2.61
975.63	-2.61
975.93	-0.61
976.22	-0.61
976.52	1.39
976.81	-3.61
977.10	3.39
977.40	0.39
977.69	0.39
977.99	1.39
978.28	0.39
978.57	1.39
978.87	1.39
979.16	-0.61
979.45	-0.61
979.75	2.39
980.04	0.39
980.34	-2.61
980.63	-5.61
980.92	-5.61
981.22	2.39
981.51	-1.61
981.80	-0.61
982.10	-2.61
982.39	-3.61
982.68	0.39
982.97	0.39
983.27	0.39
983.56	-2.61
983.85	-4.61
984.15	13.39
984.44	-0.61
984.73	-1.61
985.02	-8.61
985.32	-5.61
985.61	0.39
985.90	2.39
986.19	-0.61
986.48	1.39
986.78	0.39
987.07	-4.61
987.36	1.39
987.65	-0.61
987.95	-4.61
988.24	-1.61
988.53	0.39
988.82	0.39
989.11	-1.61
989.40	-1.61
989.70	-3.61
989.99	-3.61
990.28	-4.61
990.57	3.39
990.86	2.39
991.15	2.39
991.44	2.39
991.74	5.39
992.03	1.39
992.32	-0.61
992.61	1.39
992.90	5.39
993.19	-0.61
993.48	-2.61
993.77	-5.61
994.06	-3.61
994.35	-4.61
994.64	-6.61
994.94	-1.61
995.23	-2.61
995.52	-3.61
995.81	-2.61
996.10	3.39
996.39	-0.61
996.68	-0.61
996.97	-1.61
997.26	0.39
997.55	2.39
997.84	-3.61
998.13	-2.61
998.42	0.39
998.71	-2.61
999.00	-5.61
999.29	-2.61
999.58	-2.61
999.87	-1.61
1000.16	-1.61
1000.45	3.39
1000.73	-0.61
1001.02	-4.61
1001.31	-1.61
1001.60	0.39
1001.89	-2.61
1002.18	-1.61
1002.47	0.39
1002.76	0.39
1003.05	-0.61
1003.34	-4.61
1003.63	-4.61
1003.91	-3.61
1004.20	-0.61
1004.49	-1.61
1004.78	-0.61
1005.07	12.39
1005.36	2.39
1005.65	-0.61
1005.93	-2.61
1006.22	-2.61
1006.51	-1.61
1006.80	-1.61
1007.09	-2.61
1007.38	2.39
1007.66	-0.61
1007.95	-0.61
1008.24	5.39
1008.53	3.39
1008.82	2.39
1009.10	-0.61
1009.39	2.39
1009.68	5.39
1009.97	11.39
1010.25	3.39
1010.54	1.39
1010.83	-0.61
1011.12	-2.61
1011.40	-1.61
1011.69	-0.61
1011.98	1.39
1012.26	1.39
1012.55	-1.61
1012.84	-2.61
1013.13	0.39
1013.41	1.39
1013.70	1.39
1013.99	2.39
1014.27	1.39
1014.56	-0.61
1014.85	-1.61
1015.13	-4.61
1015.42	-0.61
1015.71	2.39
1015.99	-1.61
1016.28	0.39
1016.56	-2.61
1016.85	-1.61
1017.14	-2.61
1017.42	-2.61
1017.71	-3.61
1017.99	1.39
1018.28	1.39
1018.57	2.39
1018.85	0.39
1019.14	-0.61
1019.42	-0.61
1019.71	0.39
1019.99	-3.61
1020.28	-0.61
1020.57	0.39
1020.85	-3.61
1021.14	0.39
1021.42	-0.61
1021.71	0.39
1021.99	-0.61
1022.28	-1.61
1022.56	0.39
1022.85	0.39
1023.13	3.39
1023.42	-1.61
1023.70	13.39
1023.99	0.39
1024.27	-2.61
1024.55	0.39
1024.84	1.39
1025.12	-0.61
1025.41	-1.61
1025.69	-2.61
1025.98	-4.61
1026.26	-3.61
1026.55	-1.61
1026.83	-4.61
1027.11	-4.61
1027.40	-4.61
1027.68	-1.61
1027.97	1.39
1028.25	-0.61
1028.53	-5.61
1028.82	1.39
1029.10	1.39
1029.38	-1.61
1029.67	-2.61
1029.95	-4.61
